File: Zn_data/03112020_MnO2_RDE_50mVs_2500rpm_ExtendedBounds_120mL_counter_C04_C03.txt
EC-Lab ASCII FILE
Nb header lines  58

Cyclic Voltammetry

Run on channel  3 (SN 35515)
User
CE vs. WE compliance from -10 V to 10 V
Electrode connection  standard
Ewe ctrl range  min = -2.50 V, max = 2.50 V
Safety Limits
	Do not start on E overload
Acquisition started on  03112020 151016
Technique started on  03112020 151016
Saved on
	File  03112020_MnO2_RDE_50mVs_2500rpm_ExtendedBounds_120mL_counter_C04_C03.mpr
	Directory  CUsersCESLDocumentsEC-LabDataUndergradKatelynEChem20200311
	Host  169.254.217.189
Device  VSP (SN 1724172417241724)
Address  USB
EC-Lab for windows v11.16 (software)
Internet server v11.16 (firmware)
Command interpretor v11.16 (firmware)
Electrode material  AuPd
Initial state
Electrolyte  NaCl (0.2M)
Comments  Fe(CN)63-Fe(CN)64- 5.10-3 M
Reference electrode  SCE Saturated Calomel Electrode (0.241 V)
Electrode surface area  0.001 cmÂ²
Characteristic mass  0.001 g
Equivalent Weight  0.000 geq.
Density  0.000 gcm3
Record Ece
Record Power
Cycle Definition  ChargeDischarge alternance
Ei (V)              -1.000
vs.                 Ref
dEdt               50.000
dEdt unit          mVs
E1 (V)              1.200
vs.                 Ref
Step percent        50
N                   10
E range min (V)     -2.500
E range max (V)     2.500
I Range             Auto
I Range min         Unset
I Range max         Unset
I Range init        Unset
Bandwidth           5
E2 (V)              -2.000
vs.                 Ref
nc cycles           2
Reverse Scan        1
Ef (V)              -1.000
vs.                 Ref

mode	oxred	error	control changes	counter inc.	times	controlV	EweV	ImA	cycle number	(Q-Qo)C	EceV	PW	Ewe-EceV
2	1	0	0	0	0.000000000000000E+000	-0.997045	-0.99734	-0.0968825	1	0.0000000E+000	-0.219662	9.66248e-05	-0.777678
2	1	0	0	0	3.5238	-0.820854	-0.821196	-0.0363064	1	-0.000204359	0.109318	2.98146e-05	-0.930514
2	1	0	0	0	7.0246	-0.645813	-0.646149	-0.00990115	1	-0.000278177	-0.525416	6.39762e-06	-0.120732
2	1	0	0	0	10.5574	-0.469171	-0.469497	-0.00386799	1	-0.000298141	-0.598808	1.81601e-06	0.129312
2	1	0	0	0	14.0582	-0.29413	-0.294404	-0.000498342	1	-0.000307368	-0.619885	1.46714e-07	0.325481
2	1	0	0	0	17.559	-0.119089	-0.119401	0.00152054	1	-0.000304639	-0.634129	-1.81553e-07	0.514728
2	1	0	0	0	21.0598	0.0559522	0.05566	0.00224526	1	-0.000297817	-0.636231	1.24971e-07	0.691891
2	1	0	0	0	24.5606	0.230993	0.230686	0.00284315	1	-0.000289047	-0.63904	6.55874e-07	0.869726
2	1	0	1	0	28.0616	0.406034	0.405709	0.00371331	1	-0.000277605	-0.641519	1.50652e-06	1.04723
2	1	0	1	0	31.5624	0.581076	0.580844	0.00460843	1	-0.000263162	-0.646437	2.67678e-06	1.22728
2	1	0	1	0	35.0632	0.756117	0.755898	0.00599705	1	-0.000244728	-0.652157	4.53316e-06	1.40806
2	1	0	1	0	38.564	0.931158	0.930971	0.00814968	1	-0.000220391	-0.662037	7.58712e-06	1.59301
2	1	0	1	0	42.0968	1.1078	1.10757	0.0122877	1	-0.000184966	-0.680857	1.36095e-05	1.78843
2	0	0	0	0	45.5722	1.1184	1.11823	0.00627406	1	-0.000143585	-0.65311	7.01586e-06	1.77134
2	0	0	0	0	49.105	0.94176	0.941575	0.00160144	1	-0.000131786	-0.617535	1.50788e-06	1.55911
2	0	0	0	0	52.6058	0.766719	0.766434	0.00016521	1	-0.000129081	-0.604498	1.26623e-07	1.37093
2	0	0	0	0	56.1066	0.591678	0.59143	-0.000600963	1	-0.000129965	-0.595955	-3.55428e-07	1.18739
2	0	0	0	0	59.6074	0.416637	0.41637	-0.00120148	1	-0.000133175	-0.589532	-5.00261e-07	1.0059
2	0	0	0	0	63.1082	0.241596	0.241253	-0.00189105	1	-0.000138564	-0.580067	-4.56221e-07	0.821319
2	0	0	0	0	66.609	0.0665547	0.0663363	-0.00277134	1	-0.000146691	-0.569782	-1.83841e-07	0.636119
2	0	0	1	0	70.11	-0.108486	-0.1088	-0.0036153	1	-0.000157931	-0.558216	3.93343e-07	0.449417
2	0	0	1	0	73.6108	-0.283528	-0.283818	-0.00462818	1	-0.000171952	-0.547269	1.31356e-06	0.263451
2	0	0	1	0	77.1116	-0.458569	-0.458881	-0.00934087	1	-0.000195196	-0.484058	4.28634e-06	0.0251769
2	0	0	1	0	80.6444	-0.63521	-0.63552	-0.0238717	1	-0.000249487	-0.197022	1.51709e-05	-0.438499
2	0	0	1	0	84.1452	-0.810252	-0.810511	-0.0538078	1	-0.000381753	0.321047	4.36118e-05	-1.13156
2	0	0	1	0	87.646	-0.985293	-0.985596	-0.0914559	1	-0.000636226	0.660246	9.01385e-05	-1.64584
2	0	0	1	0	91.1788	-1.16193	-1.1622	-0.123524	1	-0.00101824	0.872674	0.00014356	-2.03487
2	0	0	1	0	94.6796	-1.33698	-1.33734	-0.143136	1	-0.00148771	1.00736	0.000191422	-2.3447
2	0	0	0	0	98.1806	-1.51202	-1.51227	-0.155066	1	-0.00201172	1.10971	0.000234502	-2.62198
2	0	0	0	0	101.681	-1.68706	-1.68735	-0.161599	1	-0.00256658	1.17958	0.000272674	-2.86692
2	0	0	0	0	105.182	-1.8621	-1.86235	-0.169307	1	-0.00314579	1.22912	0.00031531	-3.09147
2	1	0	1	1	108.652	-1.96442	-1.96463	-0.171978	1	-0.00375199	1.24075	0.000337874	-3.20538
2	1	0	1	1	112.152	-1.78938	-1.78965	-0.155727	1	-0.0043198	1.19917	0.000278697	-2.98882
2	1	0	1	1	115.653	-1.61434	-1.61457	-0.149658	1	-0.00485371	1.14491	0.000241633	-2.75948
2	1	0	1	1	119.154	-1.4393	-1.43962	-0.139979	1	-0.00536244	1.08186	0.000201517	-2.52148
2	1	0	1	1	122.655	-1.26426	-1.26461	-0.121096	1	-0.00582278	0.796625	0.000153139	-2.06123
2	1	0	1	1	126.156	-1.08922	-1.08951	-0.0862488	1	-0.00618813	0.455858	9.39685e-05	-1.54536
2	1	0	1	1	129.632	-0.915376	-0.915713	-0.0478585	2	-0.00642106	-0.165386	4.38247e-05	-0.750327
2	1	0	0	1	133.165	-0.738735	-0.739029	-0.0170617	2	-0.00653119	-0.563081	1.26091e-05	-0.175949
2	1	0	0	1	136.696	-0.562193	-0.562485	-0.00442273	2	-0.0065642	-0.630101	2.48772e-06	0.067616
2	1	0	0	1	140.197	-0.387152	-0.387423	-0.002064	2	-0.00657524	-0.641707	7.9964e-07	0.254285
2	1	0	0	1	143.698	-0.212111	-0.212377	0.00180519	2	-0.00657465	-0.656284	-3.83381e-07	0.443907
2	1	0	0	1	147.199	-0.0370697	-0.0373808	0.00246922	2	-0.00656665	-0.65982	-9.23014e-08	0.622439
2	1	0	0	1	150.699	0.137971	0.137694	0.00263542	2	-0.00655772	-0.658276	3.6288e-07	0.79597
2	1	0	0	1	154.2	0.313013	0.312739	0.00329892	2	-0.00654744	-0.660711	1.0317e-06	0.973451
2	1	0	1	1	157.701	0.488054	0.48787	0.00412567	2	-0.00653446	-0.661973	2.01279e-06	1.14984
2	1	0	1	1	161.202	0.663095	0.662882	0.00506029	2	-0.00651851	-0.665505	3.35437e-06	1.32839
2	1	0	1	1	164.703	0.838136	0.837943	0.00653469	2	-0.00649839	-0.67001	5.4757e-06	1.50795
2	1	0	1	1	168.204	1.01318	1.01299	0.00943563	2	-0.00647093	-0.682047	9.5582e-06	1.69504
2	1	0	1	1	171.736	1.18982	1.18963	0.0149248	2	-0.00642902	-0.703721	1.7755e-05	1.89335
2	0	0	0	1	175.244	1.03478	1.0346	0.00323671	2	-0.00640261	-0.651082	3.34869e-06	1.68568
2	0	0	0	1	178.745	0.859741	0.859543	0.000813633	2	-0.00639633	-0.631824	6.99353e-07	1.49137
2	0	0	0	1	182.245	0.6847	0.684443	-0.000218347	2	-0.00639546	-0.623981	-1.49446e-07	1.30842
2	0	0	0	1	185.746	0.509659	0.509405	-0.000859548	2	-0.0063974	-0.61899	-4.37858e-07	1.12839
2	0	0	0	1	189.247	0.334618	0.334323	-0.00147657	2	-0.00640151	-0.612433	-4.9365e-07	0.946756
2	0	0	0	1	192.748	0.159577	0.15932	-0.00224616	2	-0.00640797	-0.605689	-3.57858e-07	0.765009
2	0	0	0	1	196.249	-0.0154646	-0.0158076	-0.00313931	2	-0.00641746	-0.593004	4.96249e-08	0.577196
2	0	0	0	1	199.749	-0.190506	-0.190762	-0.00389436	2	-0.00642991	-0.58475	7.42897e-07	0.393987
2	0	0	1	1	203.25	-0.365547	-0.365795	-0.00637768	2	-0.00644661	-0.557777	2.33293e-06	0.191981
2	0	0	1	1	206.783	-0.542189	-0.542505	-0.014445	2	-0.00648062	-0.446995	7.83647e-06	-0.0955095
2	0	0	1	1	210.284	-0.71723	-0.71752	-0.0365505	2	-0.006565	0.0416123	2.62257e-05	-0.759132
2	0	0	1	1	213.785	-0.892271	-0.892599	-0.0725607	2	-0.00675345	0.657035	6.47676e-05	-1.54963
2	0	0	1	1	217.316	-1.06881	-1.06909	-0.10877	2	-0.00707547	0.984828	0.000116284	-2.05391
2	0	0	1	1	220.816	-1.24385	-1.24421	-0.135364	2	-0.00750597	1.09192	0.000168421	-2.33613
2	0	0	1	1	224.317	-1.4189	-1.41924	-0.150625	2	-0.00800963	1.10084	0.000213773	-2.52008
2	0	0	1	1	227.818	-1.59394	-1.5942	-0.158751	2	-0.00855242	1.09409	0.000253081	-2.68829
2	0	0	0	1	231.319	-1.76898	-1.76929	-0.165581	2	-0.00911957	1.10486	0.00029296	-2.87414
2	0	0	0	1	234.82	-1.94402	-1.94424	-0.176295	2	-0.00971542	1.09808	0.00034276	-3.04232
2	1	0	1	0	238.291	-1.8824	-1.88259	-0.162538	2	-0.0103143	0.904687	0.000305993	-2.78728
2	1	0	1	0	241.792	-1.70736	-1.70765	-0.152553	2	-0.0108644	0.609607	0.000260507	-2.31726
2	1	0	1	0	245.293	-1.53232	-1.53261	-0.146647	2	-0.0113888	0.44035	0.000224753	-1.97296
2	1	0	1	0	248.794	-1.35728	-1.35757	-0.132633	2	-0.0118816	0.445826	0.000180058	-1.8034
2	1	0	1	0	252.294	-1.18224	-1.18253	-0.106832	2	-0.0123062	0.935103	0.000126332	-2.11763
2	1	0	1	0	255.795	-1.0072	-1.0075	-0.0681887	2	-0.0126138	-0.0101168	6.87002e-05	-0.997385
2	1	0	1	0	259.304	-0.831757	-0.832061	-0.0316793	3	-0.012787	-0.511433	2.63591e-05	-0.320628
2	1	0	0	0	262.805	-0.656716	-0.657016	-0.00921941	3	-0.0128531	-0.617004	6.0573e-06	-0.0400116
2	1	0	0	0	266.338	-0.480074	-0.480365	-0.00308481	3	-0.0128713	-0.612366	1.48184e-06	0.132001
2	1	0	0	0	269.839	-0.305033	-0.305265	0.000247146	3	-0.0128776	-0.643923	-7.54451e-08	0.338658
2	1	0	0	0	273.339	-0.129992	-0.13029	0.00232127	3	-0.0128719	-0.648776	-3.02438e-07	0.518486
2	1	0	0	0	276.84	0.0450496	0.0447366	0.00251662	3	-0.0128632	-0.648343	1.12585e-07	0.693079
2	1	0	0	0	280.341	0.220091	0.219783	0.00290441	3	-0.0128539	-0.646686	6.38341e-07	0.866469
2	1	0	0	0	283.842	0.395132	0.394884	0.00360693	3	-0.0128425	-0.650397	1.42432e-06	1.04528
2	1	0	0	0	287.343	0.570173	0.569963	0.00449591	3	-0.0128283	-0.653177	2.5625e-06	1.22314
2	1	0	1	0	290.844	0.745214	0.744976	0.00562169	3	-0.0128107	-0.659628	4.18802e-06	1.4046
2	1	0	1	0	294.344	0.920255	0.920117	0.00752105	3	-0.0127881	-0.664309	6.92025e-06	1.58443
2	1	0	1	0	297.877	1.0969	1.09672	0.0112926	3	-0.0127553	-0.681519	1.23848e-05	1.77824
2	0	0	1	0	301.35	1.1294	1.12923	0.00689185	3	-0.0127142	-0.662893	7.7825e-06	1.79212
2	0	0	0	0	304.883	0.952763	0.952557	0.00175754	3	-0.0127013	-0.629259	1.67416e-06	1.58182
2	0	0	0	0	308.384	0.777722	0.777481	0.000275501	3	-0.0126981	-0.614016	2.14197e-07	1.3915
2	0	0	0	0	311.885	0.602681	0.602414	-0.000537306	3	-0.0126987	-0.609452	-3.23681e-07	1.21187
2	0	0	0	0	315.386	0.42764	0.427413	-0.00111856	3	-0.0127017	-0.600484	-4.78087e-07	1.0279
2	0	0	0	0	318.887	0.252598	0.25232	-0.00178605	3	-0.0127068	-0.591006	-4.50656e-07	0.843326
2	0	0	0	0	322.387	0.0775573	0.077265	-0.00263688	3	-0.0127145	-0.582241	-2.03738e-07	0.659506
2	0	0	0	0	325.888	-0.0974839	-0.0978041	-0.00351533	3	-0.0127253	-0.573028	3.43813e-07	0.475224
2	0	0	0	0	329.389	-0.272525	-0.272787	-0.00449433	3	-0.0127389	-0.553359	1.226e-06	0.280572
2	0	0	0	0	332.89	-0.447564	-0.447889	-0.00892592	3	-0.0127611	-0.501894	3.99782e-06	0.0540051
2	0	0	1	0	336.423	-0.624208	-0.624515	-0.0226437	3	-0.0128127	-0.200018	1.41413e-05	-0.424497
2	0	0	1	0	339.924	-0.799249	-0.799539	-0.0524108	3	-0.0129395	0.484919	4.19044e-05	-1.28446
2	0	0	1	0	343.424	-0.97429	-0.974603	-0.0903118	3	-0.0131895	0.97912	8.80181e-05	-1.95372
2	0	0	1	0	346.955	-1.15083	-1.15108	-0.122894	3	-0.0135698	1.18219	0.000141461	-2.33327
2	0	0	1	0	350.456	-1.32587	-1.3262	-0.144112	3	-0.0140392	1.28227	0.00019112	-2.60847
2	0	0	1	0	353.957	-1.50091	-1.5012	-0.154491	3	-0.0145632	1.34587	0.000231922	-2.84706
2	0	0	1	0	357.458	-1.67596	-1.67624	-0.161654	3	-0.0151169	1.38823	0.000270971	-3.06448
2	0	0	0	0	360.959	-1.851	-1.85123	-0.169695	3	-0.0156952	1.40063	0.000314144	-3.25186
2	1	0	1	1	364.43	-1.97543	-1.97563	-0.175139	3	-0.0163037	1.36236	0.00034601	-3.33799
2	1	0	1	1	367.931	-1.80038	-1.80061	-0.157404	3	-0.0168769	1.31467	0.000283424	-3.11528
2	1	0	1	1	371.432	-1.62534	-1.6256	-0.149717	3	-0.0174136	1.22356	0.00024338	-2.84916
2	1	0	1	1	374.932	-1.4503	-1.45065	-0.141613	3	-0.0179257	1.18063	0.000205431	-2.63128
2	1	0	1	1	378.433	-1.27526	-1.27562	-0.123028	3	-0.0183935	0.935159	0.000156937	-2.21078
2	1	0	1	1	381.934	-1.10022	-1.10047	-0.0900721	3	-0.0187695	0.433808	9.91216e-05	-1.53428
2	1	0	0	1	383.938	-0.999946	-1.00026	-0.0669824	3	-0.0189269	-0.027382	6.69998e-05	-0.972878