File: Zn_data/03112020_MnO2_RDE_50mVs_400rpm_ExtendedBounds_120mL_counter_C04_C03.mpt
EC-Lab ASCII FILE
Nb header lines : 61

Cyclic Voltammetry

Run on channel : 3 (SN 35515)
User :
CE vs. WE compliance from -10 V to 10 V
Electrode connection : standard
Ewe ctrl range : min = -2.50 V, max = 2.50 V
Safety Limits :
	Do not start on E overload
Acquisition started on : 03/11/2020 15:03:18
Technique started on : 03/11/2020 15:03:18
Saved on :
	File : 03112020_MnO2_RDE_50mVs_400rpm_ExtendedBounds_120mL_counter_C04_C03.mpr
	Directory : C:\Users\CESL\Documents\EC-Lab\Data\Undergrad\Katelyn\EChem\20200311\
	Host : 169.254.217.189
Device : VSP (SN 1724172417241724)
Address : USB
EC-Lab for windows v11.16 (software)
Internet server v11.16 (firmware)
Command interpretor v11.16 (firmware)
Electrode material : Au/Pd
Initial state :
Electrolyte : NaCl (0.2M)
Comments : Fe(CN)63-/Fe(CN)64- 5.10-3 M
Reference electrode : SCE Saturated Calomel Electrode (0.241 V)
Electrode surface area : 0.001 cm²
Characteristic mass : 0.001 g
Equivalent Weight : 0.000 g/eq.
Density : 0.000 g/cm3
Record Ece
Record Power
Cycle Definition : Charge/Discharge alternance
Ei (V)              -1.000
vs.                 Ref
dE/dt               50.000
dE/dt unit          mV/s
E1 (V)              1.200
vs.                 Ref
Step percent        50
N                   10
E range min (V)     -2.500
E range max (V)     2.500
I Range             Auto
I Range min         Unset
I Range max         Unset
I Range init        Unset
Bandwidth           5
E2 (V)              -2.000
vs.                 Ref
nc cycles           3
Reverse Scan        1
Ef (V)              -1.000
vs.                 Ref

Modify on : 03/11/2020 15:09
nc cycles           2

mode	ox/red	error	control changes	counter inc.	time/s	control/V	Ewe/V	<I>/mA	cycle number	(Q-Qo)/C	<Ece>/V	P/W	Ewe-Ece/V
2	1	0	0	0	0.000000000000000E+000	-0.997045	-0.997302	-0.159973	1	0.0000000E+000	-0.118275	0.000159542	-0.879026
2	1	0	0	0	3.5638	-0.818854	-0.819166	-0.0402888	1	-0.000214299	0.00212761	3.30033e-05	-0.821294
2	1	0	0	0	7.1046	-0.641812	-0.642133	-0.0180748	1	-0.000314102	-0.240743	1.16064e-05	-0.40139
2	1	0	0	0	10.6454	-0.46477	-0.46513	-0.00791748	1	-0.000356962	-0.502294	3.68266e-06	0.0371637
2	1	0	0	0	14.2182	-0.286128	-0.286413	-0.0017995	1	-0.000374987	-0.579027	5.15399e-07	0.292614
2	1	0	0	0	17.759	-0.109087	-0.109379	0.000555396	1	-0.000375517	-0.610264	-6.07484e-08	0.500885
2	1	0	1	0	21.3	0.067955	0.0677041	0.000897828	1	-0.000372868	-0.612881	6.07866e-08	0.680585
2	1	0	1	0	24.8408	0.244997	0.244691	0.00160262	1	-0.000368453	-0.61759	3.92147e-07	0.862282
2	1	0	1	0	28.3816	0.422038	0.421818	0.00246346	1	-0.000361432	-0.625802	1.03913e-06	1.04762
2	1	0	1	0	31.9224	0.59908	0.598857	0.00435004	1	-0.000349602	-0.641983	2.60505e-06	1.24084
2	1	0	1	0	35.4632	0.776121	0.775869	0.00710864	1	-0.00032943	-0.66227	5.51537e-06	1.43814
2	1	0	1	0	39.004	0.953163	0.95296	0.0102666	1	-0.000298867	-0.684817	9.78363e-06	1.63778
2	1	0	0	0	42.575	1.1317	1.13147	0.0159437	1	-0.000253206	-0.717055	1.80398e-05	1.84853
2	0	0	0	0	46.0922	1.0924	1.09221	0.00628755	1	-0.000205364	-0.666327	6.86734e-06	1.75854
2	0	0	0	0	49.665	0.913754	0.913585	0.00127068	1	-0.000194077	-0.613273	1.16088e-06	1.52686
2	0	0	1	0	53.206	0.736712	0.736464	-0.000213908	1	-0.000192629	-0.594695	-1.57535e-07	1.33116
2	0	0	1	0	56.7468	0.559671	0.559428	-0.00105628	1	-0.000194987	-0.583591	-5.90914e-07	1.14302
2	0	0	1	0	60.2876	0.382629	0.382363	-0.0018814	1	-0.000200196	-0.572316	-7.19378e-07	0.954679
2	0	0	1	0	63.8284	0.205587	0.205282	-0.0029012	1	-0.000208572	-0.559555	-5.95565e-07	0.764837
2	0	0	1	0	67.3692	0.0285457	0.0282794	-0.00409963	1	-0.00022099	-0.541478	-1.15935e-07	0.569757
2	0	0	1	0	70.91	-0.148496	-0.148794	-0.00520484	1	-0.000237624	-0.523881	7.74448e-07	0.375087
2	0	0	0	0	74.451	-0.325538	-0.325828	-0.00694041	1	-0.00025836	-0.498631	2.26138e-06	0.172803
2	0	0	0	0	78.0238	-0.50418	-0.504576	-0.0130006	1	-0.000292132	-0.398394	6.55978e-06	-0.106182
2	0	0	0	0	81.5646	-0.681221	-0.681541	-0.0279807	1	-0.000361746	-0.187131	1.907e-05	-0.49441
2	0	0	0	0	85.1054	-0.858263	-0.858615	-0.0489716	1	-0.000498039	0.0418307	4.20478e-05	-0.900446
2	0	0	0	0	88.6462	-1.0353	-1.03558	-0.0645169	1	-0.000701838	0.198214	6.68123e-05	-1.23379
2	0	0	0	0	92.1871	-1.21235	-1.21257	-0.0726927	1	-0.000946176	0.307914	8.81452e-05	-1.52049
2	0	0	1	0	95.728	-1.38939	-1.38963	-0.0762071	1	-0.00121022	0.389505	0.0001059	-1.77914
2	0	0	1	0	99.2688	-1.56643	-1.56669	-0.0805343	1	-0.00148734	0.450671	0.000126172	-2.01736
2	0	0	1	0	102.81	-1.74347	-1.74374	-0.0882925	1	-0.00178363	0.528283	0.000153959	-2.27202
2	0	0	1	0	106.382	-1.92211	-1.92239	-0.106863	1	-0.00212779	0.646569	0.000205432	-2.56896
2	1	0	0	1	109.892	-1.90241	-1.90265	-0.0979515	1	-0.0025163	0.675383	0.000186368	-2.57803
2	1	0	0	1	113.433	-1.72537	-1.72567	-0.0773895	1	-0.00282063	0.596864	0.000133549	-2.32253
2	1	0	1	1	116.974	-1.54833	-1.54863	-0.0687091	1	-0.00307743	0.520028	0.000106405	-2.06866
2	1	0	1	1	120.514	-1.37128	-1.37163	-0.0646966	1	-0.00331338	0.396874	8.87396e-05	-1.7685
2	1	0	1	1	124.055	-1.19424	-1.19449	-0.0589831	1	-0.00353311	0.275144	7.0455e-05	-1.46964
2	1	0	1	1	127.628	-1.0156	-1.01591	-0.0461844	1	-0.0037244	0.0337081	4.69193e-05	-1.04962
2	1	0	1	1	131.133	-0.840359	-0.840675	-0.0245166	2	-0.00384967	-0.412948	2.06105e-05	-0.427727
2	1	0	1	1	134.674	-0.663317	-0.663647	-0.00692759	2	-0.00390153	-0.597874	4.59748e-06	-0.0657738
2	1	0	0	1	138.247	-0.484675	-0.484977	-0.00190391	2	-0.00391411	-0.62465	9.23353e-07	0.139673
2	1	0	0	1	141.787	-0.307633	-0.30785	0.000847854	2	-0.00391735	-0.636727	-2.61012e-07	0.328877
2	1	0	0	1	145.328	-0.130592	-0.130893	0.00275332	2	-0.00390997	-0.647371	-3.60391e-07	0.516477
2	1	0	0	1	148.869	0.04645	0.0461288	0.00298055	2	-0.00389964	-0.647769	1.37489e-07	0.693897
2	1	0	0	1	152.41	0.223492	0.223212	0.00332825	2	-0.00388864	-0.64817	7.42906e-07	0.871382
2	1	0	0	1	155.951	0.400533	0.400245	0.00427994	2	-0.00387519	-0.652502	1.71303e-06	1.05275
2	1	0	1	1	159.492	0.577575	0.577364	0.00498854	2	-0.00385887	-0.656748	2.88021e-06	1.23411
2	1	0	1	1	163.032	0.754616	0.754338	0.00650052	2	-0.00383876	-0.663991	4.90359e-06	1.41833
2	1	0	1	1	166.573	0.931658	0.931482	0.00932278	2	-0.00381127	-0.679	8.684e-06	1.61048
2	1	0	1	1	170.146	1.1103	1.11011	0.0139822	2	-0.00377032	-0.703051	1.55217e-05	1.81316
2	0	0	0	1	173.651	1.1144	1.11421	0.0070016	2	-0.00372316	-0.668945	7.80125e-06	1.78315
2	0	0	0	1	177.224	0.935759	0.935608	0.00175001	2	-0.00370989	-0.624456	1.63732e-06	1.56006
2	0	0	0	1	180.765	0.758717	0.758477	0.000145749	2	-0.00370695	-0.607556	1.10548e-07	1.36603
2	0	0	0	1	184.306	0.581676	0.581483	-0.000677539	2	-0.00370799	-0.597727	-3.93978e-07	1.17921
2	0	0	0	1	187.847	0.404634	0.40432	-0.0013369	2	-0.00371161	-0.589467	-5.40534e-07	0.993787
2	0	0	1	1	191.388	0.227593	0.227321	-0.00215393	2	-0.00371776	-0.5799	-4.89635e-07	0.807221
2	0	0	1	1	194.928	0.0505509	0.0502598	-0.00318791	2	-0.00372718	-0.566177	-1.60224e-07	0.616436
2	0	0	1	1	198.469	-0.126491	-0.126777	-0.00415106	2	-0.00374033	-0.552348	5.2626e-07	0.425571
2	0	0	1	1	202.01	-0.303532	-0.303792	-0.00542006	2	-0.00375667	-0.536028	1.64657e-06	0.232236
2	0	0	1	1	205.583	-0.482174	-0.482551	-0.010756	2	-0.00378403	-0.443701	5.19034e-06	-0.0388504
2	0	0	1	1	209.124	-0.659216	-0.659536	-0.025092	2	-0.0038442	-0.138435	1.65491e-05	-0.521102
2	0	0	0	1	212.665	-0.836258	-0.836576	-0.0467263	2	-0.00397107	0.229697	3.90901e-05	-1.06627
2	0	0	0	1	216.205	-1.0133	-1.0136	-0.0626418	2	-0.00416796	0.432749	6.34936e-05	-1.44635
2	0	0	0	1	219.746	-1.19034	-1.1906	-0.0701897	2	-0.00440481	0.522605	8.35681e-05	-1.71321
2	0	0	0	1	223.287	-1.36738	-1.36766	-0.073518	2	-0.00465969	0.580926	0.000100547	-1.94858
2	0	0	0	1	226.828	-1.54442	-1.54461	-0.0767973	2	-0.0049256	0.627957	0.000118622	-2.17257
2	0	0	0	1	230.369	-1.72147	-1.72177	-0.0835895	2	-0.00520782	0.663403	0.000143922	-2.38518
2	0	0	1	1	233.91	-1.89851	-1.89872	-0.100255	2	-0.00552846	0.758018	0.000190356	-2.65674
2	1	0	0	0	237.451	-1.92441	-1.92463	-0.0994979	2	-0.00591407	0.794014	0.000191496	-2.71864
2	1	0	0	0	240.992	-1.74737	-1.74763	-0.0773663	2	-0.00622116	0.658203	0.000135208	-2.40583
2	1	0	0	0	244.533	-1.57033	-1.57063	-0.0681739	2	-0.0064764	0.523193	0.000107076	-2.09382
2	1	0	0	0	248.073	-1.39329	-1.39363	-0.0644727	2	-0.00671092	0.422368	8.98508e-05	-1.81599
2	1	0	0	0	251.614	-1.21625	-1.21651	-0.0596967	2	-0.006931	0.296359	7.26218e-05	-1.51287
2	1	0	1	0	255.155	-1.03921	-1.03953	-0.0487202	2	-0.00712568	0.0490242	5.06463e-05	-1.08856
2	1	0	1	0	258.692	-0.862364	-0.862672	-0.027505	3	-0.00726244	-0.372665	2.37278e-05	-0.490007
2	1	0	1	0	262.233	-0.685322	-0.685613	-0.00833671	3	-0.00732258	-0.592835	5.71576e-06	-0.0927783
2	1	0	1	0	265.806	-0.50668	-0.506983	-0.0020779	3	-0.0073377	-0.631358	1.05346e-06	0.124375
2	1	0	1	0	269.346	-0.329639	-0.329884	0.000291391	3	-0.00734242	-0.643738	-9.61252e-08	0.313854
2	1	0	1	0	272.887	-0.152597	-0.152884	0.00257918	3	-0.00733614	-0.655243	-3.94317e-07	0.502359
2	1	0	0	0	276.428	0.0244448	0.0242035	0.00292999	3	-0.00732617	-0.657625	7.09161e-08	0.681828
2	1	0	0	0	279.969	0.201486	0.201166	0.00327435	3	-0.00731537	-0.659686	6.58688e-07	0.860853
2	1	0	0	0	283.51	0.378528	0.378237	0.00416518	3	-0.00730216	-0.663481	1.57542e-06	1.04172
2	1	0	0	0	287.051	0.55557	0.555408	0.00486135	3	-0.00728614	-0.666834	2.70003e-06	1.22224
2	1	0	0	0	290.591	0.732611	0.732357	0.00607945	3	-0.00726695	-0.672369	4.45233e-06	1.40473
2	1	0	0	0	294.132	0.909653	0.909456	0.00843114	3	-0.00724169	-0.6821	7.66775e-06	1.59156
2	1	0	1	0	297.705	1.08829	1.0881	0.0127065	3	-0.00720469	-0.700522	1.3826e-05	1.78862
2	0	0	1	0	301.21	1.13641	1.13621	0.00813367	3	-0.00715726	-0.683004	9.24152e-06	1.81921
2	0	0	1	0	304.783	0.957764	0.957545	0.00199609	3	-0.00714211	-0.640509	1.91135e-06	1.59805
2	0	0	0	0	308.324	0.780722	0.780461	0.00033593	3	-0.0071385	-0.62577	2.6218e-07	1.40623
2	0	0	0	0	311.865	0.603681	0.603501	-0.000555291	3	-0.00713907	-0.617742	-3.35119e-07	1.22124
2	0	0	0	0	315.406	0.426639	0.426428	-0.0011883	3	-0.0071422	-0.611137	-5.06725e-07	1.03757
2	0	0	0	0	318.947	0.249598	0.249298	-0.00189608	3	-0.00714769	-0.603484	-4.72691e-07	0.852782
2	0	0	0	0	322.487	0.0725561	0.0722911	-0.00289729	3	-0.00715617	-0.593605	-2.09448e-07	0.665896
2	0	0	0	0	326.028	-0.104486	-0.104762	-0.00382646	3	-0.00716817	-0.581909	4.00867e-07	0.477147
2	0	0	1	0	329.569	-0.281527	-0.281804	-0.00483146	3	-0.00718315	-0.570177	1.36153e-06	0.288373
2	0	0	1	0	333.11	-0.458569	-0.458888	-0.00935525	3	-0.00720705	-0.511251	4.29302e-06	0.0523627
2	0	0	1	0	336.683	-0.637211	-0.6375	-0.0222482	3	-0.00726005	-0.256877	1.41832e-05	-0.380623
2	0	0	1	0	340.224	-0.814253	-0.814569	-0.0441453	3	-0.00737645	0.204137	3.59594e-05	-1.01871
2	0	0	1	0	343.764	-0.991294	-0.991558	-0.0611328	3	-0.00756603	0.460918	6.06167e-05	-1.45248
2	0	0	1	0	347.305	-1.16834	-1.16857	-0.0691637	3	-0.00779874	0.565367	8.08226e-05	-1.73394
2	0	0	0	0	350.846	-1.34538	-1.34564	-0.0728614	3	-0.00805065	0.616325	9.80453e-05	-1.96197
2	0	0	0	0	354.387	-1.52242	-1.52269	-0.0755604	3	-0.00831296	0.645448	0.000115055	-2.16814
2	0	0	0	0	357.928	-1.69946	-1.69972	-0.0816781	3	-0.00859001	0.667915	0.00013883	-2.36763
2	0	0	0	0	361.469	-1.8765	-1.87673	-0.0967122	3	-0.00890066	0.753783	0.000181503	-2.63051
2	1	0	1	1	365.01	-1.94642	-1.94665	-0.10289	3	-0.00928142	0.80176	0.000200292	-2.74841
2	1	0	1	1	368.551	-1.76938	-1.76965	-0.0780999	3	-0.00959532	0.562961	0.000138209	-2.33261
2	1	0	0	1	372.092	-1.59234	-1.59262	-0.0685363	3	-0.00985181	0.375373	0.000109152	-1.96799
2	1	0	0	1	375.633	-1.41529	-1.41565	-0.0643899	3	-0.0100866	0.28693	9.11537e-05	-1.70258
2	1	0	0	1	379.173	-1.23825	-1.23861	-0.0603026	3	-0.0103079	0.183817	7.46917e-05	-1.42243
2	1	0	0	1	382.714	-1.06121	-1.06149	-0.0507087	3	-0.010507	-0.000987662	5.3827e-05	-1.06051
2	1	0	0	1	383.938	-0.999946	-1.00018	-0.0445608	3	-0.0105654	-0.11563	4.4569e-05	-0.884554