File: RDE_data/02262020_MnO2_RDE_50mVs_100rpm_ExtendedBounds_IncreasedFlow_C04.mpt
EC-Lab ASCII FILE
Nb header lines : 56

Cyclic Voltammetry

Run on channel : 4 (SN 35517)
User : CESL
CE vs. WE compliance from -10 V to 10 V
Electrode connection : standard
Ewe ctrl range : min = -2.50 V, max = 2.50 V
Safety Limits :
	Do not start on E overload
Acquisition started on : 02/26/2020 14:32:19
Technique started on : 02/26/2020 14:32:19
Saved on :
	File : 02262020_MnO2_RDE_50mVs_100rpm_ExtendedBounds_IncreasedFlow_C04.mpr
	Directory : C:\Users\CESL\Documents\EC-Lab\Data\Undergrad\Katelyn\EChem\
	Host : 169.254.217.189
Device : VSP (SN 1724172417241724)
Address : USB
EC-Lab for windows v11.16 (software)
Internet server v11.16 (firmware)
Command interpretor v11.16 (firmware)
Electrode material : Au/Pd
Initial state :
Electrolyte : NaCl (0.2M)
Comments : Fe(CN)63-/Fe(CN)64- 5.10-3 M
Reference electrode : SCE Saturated Calomel Electrode (0.241 V)
Electrode surface area : 0.001 cm²
Characteristic mass : 0.001 g
Equivalent Weight : 0.000 g/eq.
Density : 0.000 g/cm3
Cycle Definition : Charge/Discharge alternance
Ei (V)              -1.000
vs.                 Ref
dE/dt               50.000
dE/dt unit          mV/s
E1 (V)              1.200
vs.                 Ref
Step percent        50
N                   10
E range min (V)     -2.500
E range max (V)     2.500
I Range             Auto
I Range min         Unset
I Range max         Unset
I Range init        Unset
Bandwidth           5
E2 (V)              -2.000
vs.                 Ref
nc cycles           3
Reverse Scan        1
Ef (V)              -1.000
vs.                 Ref

mode	ox/red	error	control changes	counter inc.	time/s	control/V	Ewe/V	<I>/mA	cycle number	(Q-Qo)/C	P/W
2	1	0	0	0	0.000000000000000E+000	-0.99698	-0.997573	-0.20956	1	0.0000000E+000	0.000209052
2	1	0	0	0	3.7846	-0.807751	-0.80816	-0.0233753	1	-0.000160904	1.8891e-05
2	1	0	1	0	7.546	-0.619672	-0.620127	-0.00891969	1	-0.000220526	5.53134e-06
2	1	0	1	0	11.3396	-0.429992	-0.430402	-0.0022596	1	-0.000238059	9.72536e-07
2	1	0	1	0	15.1012	-0.241913	-0.242323	0.00486442	1	-0.000233003	-1.17876e-06
2	1	0	1	0	18.8628	-0.0538343	-0.0542541	0.00631465	1	-0.000210797	-3.42595e-07
2	1	0	1	0	22.6244	0.134245	0.133951	0.00645214	1	-0.000186758	8.6427e-07
2	1	0	1	0	26.386	0.322324	0.321997	0.00720417	1	-0.000161098	2.31972e-06
2	1	0	1	0	30.1476	0.510402	0.510105	0.00825442	1	-0.000131861	4.21062e-06
2	1	0	1	0	33.9412	0.700082	0.699759	0.0104123	1	-9.71266e-05	7.28612e-06
2	1	0	1	0	37.7028	0.888161	0.887833	0.0151053	1	-4.97596e-05	1.3411e-05
2	1	0	1	0	41.4644	1.07624	1.07594	0.0228536	1	2.07396e-05	2.45891e-05
2	0	0	1	0	45.1724	1.13837	1.13809	0.0158031	1	0.000112657	1.79853e-05
2	0	0	1	0	48.934	0.950287	0.949976	0.00530777	1	0.000147054	5.04226e-06
2	0	0	1	0	52.7276	0.760608	0.760258	0.00200647	1	0.000160026	1.52544e-06
2	0	0	0	0	56.489	0.572529	0.572125	0.000120289	1	0.000163721	6.88205e-08
2	0	0	0	0	60.2506	0.38445	0.38411	-0.00150313	1	0.000160989	-5.77367e-07
2	0	0	0	0	64.0122	0.196371	0.195959	-0.00302403	1	0.000152388	-5.92586e-07
2	0	0	0	0	67.7738	0.00829185	0.00791622	-0.00426149	1	0.000138451	-3.37349e-08
2	0	0	0	0	71.5354	-0.179787	-0.180254	-0.00562064	1	0.000119825	1.01314e-06
2	0	0	0	0	75.329	-0.369467	-0.369877	-0.0120765	1	8.95678e-05	4.46681e-06
2	0	0	0	0	79.0906	-0.557546	-0.557952	-0.0270632	1	1.86634e-05	1.51e-05
2	0	0	0	0	82.8522	-0.745625	-0.746076	-0.0403824	1	-0.000111438	3.01283e-05
2	0	0	0	0	86.6138	-0.933704	-0.934095	-0.0455943	1	-0.000275101	4.25894e-05
2	0	0	0	0	90.3754	-1.12178	-1.12214	-0.0495665	1	-0.000454659	5.56207e-05
2	0	0	0	0	94.137	-1.30986	-1.31023	-0.0537875	1	-0.000647771	7.04738e-05
2	0	0	1	0	97.8984	-1.49794	-1.49835	-0.0632938	1	-0.000864127	9.48364e-05
2	0	0	1	0	101.66	-1.68602	-1.68642	-0.0926396	1	-0.00114659	0.00015623
2	0	0	1	0	105.454	-1.8757	-1.87608	-0.149386	1	-0.00159651	0.000280261
2	1	0	0	1	109.192	-1.93743	-1.93781	-0.151868	1	-0.00225311	0.00029429
2	1	0	0	1	112.953	-1.74935	-1.74974	-0.0823467	1	-0.00267276	0.000144085
2	1	0	0	1	116.715	-1.56127	-1.56168	-0.0531072	1	-0.00292066	8.29366e-05
2	1	0	0	1	120.509	-1.37159	-1.37201	-0.0376506	1	-0.00308858	5.1657e-05
2	1	0	0	1	124.27	-1.18351	-1.18386	-0.0266408	1	-0.00321152	3.15391e-05
2	1	0	0	1	128.032	-0.99543	-0.995817	-0.0235303	2	-0.00330321	2.34319e-05
2	1	0	0	1	131.793	-0.807351	-0.807769	-0.017472	2	-0.0033817	1.41133e-05
2	1	0	1	1	135.555	-0.619269	-0.619717	-0.00485718	2	-0.00342334	3.01007e-06
2	1	0	1	1	139.348	-0.429592	-0.429994	0.000644595	2	-0.00342796	-2.77172e-07
2	1	0	1	1	143.11	-0.241513	-0.241867	0.00623859	2	-0.00341436	-1.50891e-06
2	1	0	1	1	146.872	-0.0534341	-0.0538478	0.00688648	2	-0.00338891	-3.70822e-07
2	1	0	1	1	150.633	0.134645	0.134301	0.00698682	2	-0.00336299	9.38337e-07
2	1	0	1	1	154.395	0.322724	0.32242	0.00777795	2	-0.00333536	2.50777e-06
2	1	0	1	1	158.156	0.510803	0.510482	0.00871384	2	-0.00330418	4.44825e-06
2	1	0	1	1	161.95	0.700482	0.700164	0.0108792	2	-0.00326775	7.61724e-06
2	1	0	1	1	165.712	0.888561	0.888206	0.0155695	2	-0.00321865	1.38289e-05
2	1	0	1	1	169.473	1.07664	1.07639	0.0232284	2	-0.00314646	2.50028e-05
2	0	0	1	1	173.193	1.13737	1.13707	0.0159358	2	-0.00305318	1.81201e-05
2	0	0	1	1	176.955	0.949287	0.949029	0.00551175	2	-0.00301813	5.23081e-06
2	0	0	1	1	180.748	0.759607	0.759276	0.00215285	2	-0.00300453	1.63461e-06
2	0	0	0	1	184.51	0.571526	0.571118	0.000211682	2	-0.0030003	1.20895e-07
2	0	0	0	1	188.271	0.383449	0.383066	-0.00138375	2	-0.0030026	-5.30066e-07
2	0	0	0	1	192.033	0.19537	0.195027	-0.00294922	2	-0.00301093	-5.75179e-07
2	0	0	0	1	195.795	0.00729143	0.00690846	-0.00420986	2	-0.00302458	-2.90837e-08
2	0	0	0	1	199.556	-0.180788	-0.181213	-0.00547835	2	-0.00304283	9.92747e-07
2	0	0	0	1	203.35	-0.370467	-0.370907	-0.0118456	2	-0.00307251	4.3936e-06
2	0	0	0	1	207.111	-0.558546	-0.559002	-0.026889	2	-0.00314273	1.5031e-05
2	0	0	0	1	210.873	-0.746625	-0.747073	-0.0401518	2	-0.00327278	2.99964e-05
2	0	0	0	1	214.635	-0.934704	-0.935119	-0.0455577	2	-0.00343587	4.26019e-05
2	0	0	0	1	218.396	-1.12278	-1.12317	-0.0496267	2	-0.00361498	5.57391e-05
2	0	0	0	1	222.158	-1.31086	-1.31129	-0.0535271	2	-0.00380814	7.01896e-05
2	0	0	1	1	225.919	-1.49894	-1.49932	-0.0623518	2	-0.00402314	9.34854e-05
2	0	0	1	1	229.681	-1.68702	-1.68741	-0.0908944	2	-0.00430376	0.000153376
2	0	0	1	1	233.474	-1.8767	-1.87706	-0.145878	2	-0.00474749	0.000273822
2	1	0	0	0	237.213	-1.93643	-1.93677	-0.148685	2	-0.00538975	0.000287968
2	1	0	0	0	240.974	-1.74835	-1.74872	-0.08071	2	-0.00580002	0.000141139
2	1	0	0	0	244.736	-1.56027	-1.56065	-0.0514634	2	-0.00604024	8.03164e-05
2	1	0	0	0	248.529	-1.37059	-1.37096	-0.0376107	2	-0.00620617	5.15627e-05
2	1	0	0	0	252.291	-1.18251	-1.18291	-0.0265953	2	-0.00632957	3.14598e-05
2	1	0	0	0	256.053	-0.994429	-0.994887	-0.0231691	3	-0.00642108	2.30506e-05
2	1	0	0	0	259.814	-0.80635	-0.806783	-0.0172982	3	-0.00650014	1.39559e-05
2	1	0	0	0	263.608	-0.616671	-0.617082	-0.00465364	3	-0.00654104	2.87168e-06
2	1	0	1	0	267.369	-0.428592	-0.429009	0.000732359	3	-0.00654514	-3.14189e-07
2	1	0	1	0	271.131	-0.240513	-0.240911	0.00629879	3	-0.00653126	-1.51745e-06
2	1	0	1	0	274.892	-0.0524337	-0.0528368	0.00681944	3	-0.00650583	-3.60318e-07
2	1	0	1	0	278.654	0.135645	0.135325	0.00683361	3	-0.00648026	9.24756e-07
2	1	0	1	0	282.416	0.323724	0.323401	0.00769596	3	-0.00645298	2.48888e-06
2	1	0	1	0	286.177	0.511803	0.511477	0.00864296	3	-0.00642211	4.42067e-06
2	1	0	1	0	289.971	0.701483	0.701197	0.0107696	3	-0.006386	7.55158e-06
2	1	0	1	0	293.732	0.889562	0.889242	0.0155834	3	-0.00633713	1.38574e-05
2	1	0	1	0	297.494	1.07764	1.07735	0.0233672	3	-0.0062648	2.51748e-05
2	0	0	1	0	301.214	1.13637	1.13604	0.015716	3	-0.00617143	1.7854e-05
2	0	0	1	0	304.976	0.948286	0.947976	0.00542309	3	-0.00613685	5.14096e-06
2	0	0	1	0	308.769	0.758607	0.758317	0.00211339	3	-0.00612353	1.60262e-06
2	0	0	1	0	312.531	0.570528	0.570176	0.000233896	3	-0.00611941	1.33362e-07
2	0	0	0	0	316.292	0.382449	0.38211	-0.00135353	3	-0.00612156	-5.17197e-07
2	0	0	0	0	320.054	0.19437	0.193923	-0.00285417	3	-0.00612957	-5.5349e-07
2	0	0	0	0	323.815	0.00629101	0.00591237	-0.00410377	3	-0.00614291	-2.4263e-08
2	0	0	0	0	327.577	-0.181788	-0.182236	-0.00542338	3	-0.00616084	9.88337e-07
2	0	0	0	0	331.371	-0.371468	-0.371896	-0.011804	3	-0.00619016	4.38987e-06
2	0	0	0	0	335.132	-0.559547	-0.559967	-0.0267375	3	-0.00625989	1.49721e-05
2	0	0	0	0	338.894	-0.747626	-0.748103	-0.0401041	3	-0.00638955	3.0002e-05
2	0	0	0	0	342.655	-0.935705	-0.936114	-0.0453845	3	-0.00655173	4.24851e-05
2	0	0	0	0	346.417	-1.12378	-1.12421	-0.0493568	3	-0.00672965	5.54872e-05
2	0	0	0	0	350.179	-1.31186	-1.31224	-0.053269	3	-0.00692243	6.99017e-05
2	0	0	1	0	353.94	-1.49994	-1.50028	-0.0628559	3	-0.00713703	9.43018e-05
2	0	0	1	0	357.702	-1.68802	-1.68841	-0.0909266	3	-0.00741654	0.000153521
2	0	0	1	0	361.493	-1.8776	-1.87794	-0.144943	3	-0.00785827	0.000272194
2	1	0	0	1	365.233	-1.93542	-1.93579	-0.144444	3	-0.00849221	0.000279613
2	1	0	0	1	368.995	-1.74735	-1.74772	-0.0800631	3	-0.0088953	0.000139928
2	1	0	0	1	372.757	-1.55927	-1.55964	-0.0513098	3	-0.00913501	8.00247e-05
2	1	0	0	1	376.55	-1.36959	-1.36997	-0.0378542	3	-0.00930172	5.18589e-05
2	1	0	0	1	380.312	-1.18151	-1.18189	-0.0267164	3	-0.00942518	3.1576e-05
2	1	0	0	1	384.073	-0.993429	-0.99382	-0.0232896	4	-0.00951751	2.31457e-05
2	1	0	0	1	387.835	-0.80535	-0.805777	-0.0169592	4	-0.00959585	1.36653e-05
2	1	0	0	1	391.597	-0.617271	-0.617704	-0.00468561	4	-0.00963687	2.89432e-06
2	1	0	0	1	395.39	-0.427591	-0.428028	0.000644156	4	-0.0096413	-2.75717e-07
2	1	0	1	1	399.152	-0.239512	-0.239914	0.00622431	4	-0.00962775	-1.4933e-06
2	1	0	1	1	402.913	-0.0514332	-0.0518121	0.00680298	4	-0.00960223	-3.52477e-07
2	1	0	1	1	406.675	0.136646	0.136321	0.00683424	4	-0.00957677	9.31648e-07
2	1	0	1	1	410.436	0.324725	0.3244	0.00764777	4	-0.00954956	2.48094e-06
2	1	0	1	1	414.198	0.512804	0.512477	0.00865768	4	-0.00951868	4.43686e-06
2	1	0	1	1	417.992	0.702483	0.70217	0.0107963	4	-0.00948253	7.58083e-06
2	1	0	1	1	421.753	0.890562	0.890268	0.0155921	4	-0.00943357	1.38812e-05
2	1	0	1	1	425.515	1.07864	1.07836	0.0234543	4	-0.00936096	2.52923e-05
2	0	0	1	1	429.235	1.13536	1.13508	0.0156098	4	-0.00926755	1.77183e-05
2	0	0	1	1	432.996	0.947286	0.946954	0.0053265	4	-0.00923335	5.04395e-06
2	0	0	1	1	436.79	0.757606	0.757278	0.00203271	4	-0.00922028	1.53933e-06
2	0	0	1	1	440.552	0.569527	0.569142	0.000193864	4	-0.00921637	1.10336e-07
2	0	0	0	1	444.313	0.381448	0.381069	-0.00136938	4	-0.00921869	-5.21828e-07
2	0	0	0	1	448.075	0.19337	0.193003	-0.00294968	4	-0.00922691	-5.69299e-07
2	0	0	0	1	451.836	0.00529059	0.00491097	-0.0041212	4	-0.00924039	-2.02391e-08
2	0	0	0	1	455.598	-0.182788	-0.183239	-0.00537306	4	-0.00925836	9.84553e-07
2	0	0	0	1	459.391	-0.372468	-0.372865	-0.0117711	4	-0.00928761	4.38905e-06
2	0	0	0	1	463.153	-0.560547	-0.560957	-0.0268284	4	-0.00935716	1.50496e-05
2	0	0	0	1	466.915	-0.748626	-0.74907	-0.0400289	4	-0.00948629	2.99844e-05
2	0	0	0	1	470.676	-0.936705	-0.937091	-0.045608	4	-0.00964875	4.27388e-05
2	0	0	0	1	474.438	-1.12478	-1.12518	-0.0490259	4	-0.00982709	5.51627e-05
2	0	0	0	1	478.199	-1.31286	-1.31328	-0.0531145	4	-0.0100185	6.97541e-05
2	0	0	0	1	481.961	-1.50094	-1.50131	-0.0623363	4	-0.0102328	9.35859e-05
2	0	0	1	1	485.722	-1.68902	-1.68939	-0.090993	4	-0.0105127	0.000153723
2	0	0	1	1	489.516	-1.8787	-1.87908	-0.145103	4	-0.0109541	0.00027266
2	1	0	0	0	493.254	-1.93442	-1.93483	-0.141938	4	-0.0115854	0.000274626
2	1	0	0	0	497.016	-1.74635	-1.74671	-0.0785409	4	-0.0119838	0.000137188
2	1	0	0	0	500.777	-1.55827	-1.55867	-0.0522497	4	-0.012222	8.14399e-05
2	1	0	0	0	504.571	-1.36859	-1.36893	-0.0377501	4	-0.0123873	5.16773e-05
2	1	0	0	0	508.333	-1.18051	-1.18089	-0.0266442	4	-0.0125102	3.14639e-05
2	1	0	0	0	511.942	-0.999982	-1.00049	-0.0237015	4	-0.0125997	2.37132e-05