File: RDE_data/02262020_MnO2_RDE_50mVs_900rpm_ExtendedBounds_IncreasedFlow_C04.mpt
EC-Lab ASCII FILE
Nb header lines : 56

Cyclic Voltammetry

Run on channel : 4 (SN 35517)
User : CESL
CE vs. WE compliance from -10 V to 10 V
Electrode connection : standard
Ewe ctrl range : min = -2.50 V, max = 2.50 V
Safety Limits :
	Do not start on E overload
Acquisition started on : 02/26/2020 14:14:01
Technique started on : 02/26/2020 14:14:01
Saved on :
	File : 02262020_MnO2_RDE_50mVs_900rpm_ExtendedBounds_IncreasedFlow_C04.mpr
	Directory : C:\Users\CESL\Documents\EC-Lab\Data\Undergrad\Katelyn\EChem\
	Host : 169.254.217.189
Device : VSP (SN 1724172417241724)
Address : USB
EC-Lab for windows v11.16 (software)
Internet server v11.16 (firmware)
Command interpretor v11.16 (firmware)
Electrode material : Au/Pd
Initial state :
Electrolyte : NaCl (0.2M)
Comments : Fe(CN)63-/Fe(CN)64- 5.10-3 M
Reference electrode : SCE Saturated Calomel Electrode (0.241 V)
Electrode surface area : 0.001 cm²
Characteristic mass : 0.001 g
Equivalent Weight : 0.000 g/eq.
Density : 0.000 g/cm3
Cycle Definition : Charge/Discharge alternance
Ei (V)              -1.000
vs.                 Ref
dE/dt               50.000
dE/dt unit          mV/s
E1 (V)              1.200
vs.                 Ref
Step percent        50
N                   10
E range min (V)     -2.500
E range max (V)     2.500
I Range             Auto
I Range min         Unset
I Range max         Unset
I Range init        Unset
Bandwidth           5
E2 (V)              -2.000
vs.                 Ref
nc cycles           3
Reverse Scan        1
Ef (V)              -1.000
vs.                 Ref

mode	ox/red	error	control changes	counter inc.	time/s	control/V	Ewe/V	<I>/mA	cycle number	(Q-Qo)/C	P/W
2	1	0	0	0	0.000000000000000E+000	-0.99698	-0.997344	-0.286574	1	0.0000000E+000	0.000285813
2	1	0	1	0	3.7124	-0.811353	-0.811768	-0.0555336	1	-0.000316601	4.50804e-05
2	1	0	1	0	7.466	-0.623674	-0.624107	-0.0198103	1	-0.000451439	1.23638e-05
2	1	0	1	0	11.1876	-0.437595	-0.438077	-0.00732239	1	-0.000495082	3.20777e-06
2	1	0	1	0	14.9412	-0.249917	-0.250287	0.00311485	1	-0.000502813	-7.79606e-07
2	1	0	1	0	18.6628	-0.0638385	-0.0642553	0.00548847	1	-0.00048525	-3.52663e-07
2	1	0	1	0	22.3844	0.12224	0.12186	0.00604296	1	-0.000463477	7.36394e-07
2	1	0	0	0	26.1058	0.308318	0.308042	0.00678102	1	-0.000439707	2.08884e-06
2	1	0	0	0	29.8274	0.494396	0.494036	0.00778855	1	-0.000412566	3.84783e-06
2	1	0	0	0	33.549	0.680474	0.680183	0.00988113	1	-0.000380377	6.72097e-06
2	1	0	0	0	37.3026	0.868153	0.867769	0.0143138	1	-0.000335609	1.24211e-05
2	1	0	0	0	41.0242	1.05423	1.05395	0.0214006	1	-0.000270054	2.25552e-05
2	0	0	0	0	44.6922	1.16238	1.16212	0.0194815	1	-0.000177968	2.26399e-05
2	0	0	1	0	48.4137	0.976295	0.975993	0.00583291	1	-0.000138362	5.69287e-06
2	0	0	1	0	52.1652	0.788719	0.788382	0.00209637	1	-0.000124609	1.65274e-06
2	0	0	1	0	55.8868	0.602641	0.60227	0.00012084	1	-0.000120805	7.27783e-08
2	0	0	1	0	59.6084	0.416563	0.416192	-0.00145013	1	-0.000123392	-6.03534e-07
2	0	0	1	0	63.33	0.230485	0.230102	-0.00303521	1	-0.000131773	-6.98407e-07
2	0	0	1	0	67.0516	0.044407	0.0440258	-0.00455239	1	-0.000146002	-2.00423e-07
2	0	0	0	0	70.773	-0.141671	-0.142089	-0.00622839	1	-0.00016586	8.84988e-07
2	0	0	0	0	74.5266	-0.32935	-0.329811	-0.0121802	1	-0.000196854	4.01717e-06
2	0	0	0	0	78.2482	-0.515428	-0.515867	-0.0318158	1	-0.000274236	1.64127e-05
2	0	0	0	0	81.9698	-0.701506	-0.701939	-0.0629295	1	-0.000449429	4.41727e-05
2	0	0	0	0	85.6914	-0.887585	-0.887989	-0.0901808	1	-0.000740096	8.00795e-05
2	0	0	0	0	89.445	-1.07526	-1.07569	-0.103918	1	-0.00110717	0.000111783
2	0	0	1	0	93.1665	-1.26135	-1.26178	-0.111671	1	-0.00150955	0.000140904
2	0	0	1	0	96.888	-1.44742	-1.44778	-0.12011	1	-0.00193969	0.000173892
2	0	0	1	0	100.61	-1.6335	-1.63388	-0.140022	1	-0.00241799	0.000228779
2	0	0	1	0	104.331	-1.81958	-1.81995	-0.194131	1	-0.00302822	0.000353308
2	1	0	0	1	108.031	-1.99545	-1.99583	-0.268846	1	-0.00389557	0.00053657
2	1	0	1	1	111.753	-1.80937	-1.80978	-0.171045	1	-0.00467382	0.000309553
2	1	0	1	1	115.474	-1.62329	-1.62368	-0.128995	1	-0.00522613	0.000209446
2	1	0	1	1	119.196	-1.43722	-1.43761	-0.101379	1	-0.00565113	0.000145744
2	1	0	1	1	122.918	-1.25114	-1.25157	-0.0867501	1	-0.00599913	0.000108574
2	1	0	1	1	126.639	-1.06506	-1.06553	-0.0774556	1	-0.0063036	8.2531e-05
2	1	0	1	1	130.335	-0.880282	-0.880704	-0.056859	2	-0.00655868	5.00759e-05
2	1	0	0	1	134.088	-0.692603	-0.693075	-0.0208896	2	-0.00670325	1.4478e-05
2	1	0	0	1	137.842	-0.504924	-0.505321	-0.00370902	2	-0.0067422	1.87425e-06
2	1	0	0	1	141.563	-0.318846	-0.319221	0.0033247	2	-0.00674632	-1.06131e-06
2	1	0	0	1	145.285	-0.132767	-0.133158	0.00713845	2	-0.00672352	-9.50546e-07
2	1	0	0	1	149.007	0.0533107	0.052962	0.00711849	2	-0.00669687	3.77009e-07
2	1	0	0	1	152.728	0.239389	0.239029	0.00756328	2	-0.00666981	1.80785e-06
2	1	0	1	1	156.45	0.425467	0.425145	0.00843224	2	-0.00663995	3.58492e-06
2	1	0	1	1	160.171	0.611545	0.611269	0.0097165	2	-0.00660652	5.9394e-06
2	1	0	1	1	163.925	0.799224	0.798873	0.0131907	2	-0.00656409	1.05377e-05
2	1	0	1	1	167.646	0.985302	0.984961	0.0191191	2	-0.00650472	1.88316e-05
2	1	0	1	1	171.368	1.17138	1.17103	0.0287184	2	-0.00641693	3.36302e-05
2	0	0	1	1	175.034	1.04533	1.04504	0.00919211	2	-0.00635	9.60616e-06
2	0	0	0	1	178.787	0.857648	0.857311	0.00364004	2	-0.00632774	3.12064e-06
2	0	0	0	1	182.509	0.67157	0.671225	0.00117552	2	-0.00631914	7.89035e-07
2	0	0	0	1	186.231	0.485492	0.485147	-0.000597989	2	-0.00631819	-2.90112e-07
2	0	0	0	1	189.952	0.299414	0.299017	-0.00216388	2	-0.00632339	-6.47037e-07
2	0	0	0	1	193.674	0.113336	0.11298	-0.00371583	2	-0.00633453	-4.19814e-07
2	0	0	0	1	197.395	-0.0727422	-0.0731851	-0.00516972	2	-0.00635098	3.78346e-07
2	0	0	1	1	201.117	-0.25882	-0.259262	-0.00801533	2	-0.00637419	2.07807e-06
2	0	0	1	1	204.87	-0.446499	-0.446983	-0.0218591	2	-0.00642607	9.77064e-06
2	0	0	1	1	208.592	-0.632577	-0.632984	-0.0498634	2	-0.00655621	3.15627e-05
2	0	0	1	1	212.314	-0.818656	-0.819045	-0.0817808	2	-0.00680358	6.69821e-05
2	0	0	1	1	216.035	-1.00473	-1.00515	-0.0992098	2	-0.00714456	9.97206e-05
2	0	0	1	1	219.789	-1.19241	-1.19282	-0.108583	2	-0.00753584	0.00012952
2	0	0	0	1	223.51	-1.37849	-1.37887	-0.115667	2	-0.00795303	0.00015949
2	0	0	0	1	227.232	-1.56457	-1.56496	-0.129556	2	-0.00840552	0.000202751
2	0	0	0	1	230.953	-1.75065	-1.75105	-0.168667	2	-0.00894829	0.000295345
2	0	0	0	1	234.675	-1.93673	-1.93707	-0.243331	2	-0.00970609	0.00047135
2	1	0	1	0	238.373	-1.8784	-1.87881	-0.193685	2	-0.0105838	0.000363897
2	1	0	0	0	242.095	-1.69232	-1.69277	-0.14246	2	-0.0111975	0.000241153
2	1	0	0	0	245.816	-1.50624	-1.50661	-0.110255	2	-0.0116637	0.000166112
2	1	0	0	0	249.538	-1.32017	-1.32058	-0.0918014	2	-0.0120346	0.000121231
2	1	0	0	0	253.259	-1.13409	-1.13451	-0.0808249	2	-0.0123533	9.16967e-05
2	1	0	0	0	256.955	-0.94931	-0.949725	-0.067418	3	-0.012632	6.40286e-05
2	1	0	1	0	260.708	-0.761634	-0.762089	-0.0334277	3	-0.0128259	2.54749e-05
2	1	0	1	0	264.43	-0.575553	-0.575981	-0.00758862	3	-0.0128942	4.3709e-06
2	1	0	1	0	268.184	-0.387875	-0.388291	-0.000730239	3	-0.0129078	2.83546e-07
2	1	0	1	0	271.905	-0.201796	-0.202217	0.00665556	3	-0.0128934	-1.34586e-06
2	1	0	1	0	275.627	-0.0157182	-0.0160886	0.00698911	3	-0.0128675	-1.12445e-07
2	1	0	1	0	279.348	0.17036	0.170001	0.00714336	3	-0.0128414	1.21438e-06
2	1	0	0	0	283.07	0.356438	0.35609	0.00800577	3	-0.0128134	2.85077e-06
2	1	0	0	0	286.791	0.542516	0.542168	0.00897545	3	-0.0127818	4.8662e-06
2	1	0	0	0	290.545	0.730195	0.729845	0.0115219	3	-0.012744	8.40918e-06
2	1	0	0	0	294.267	0.916273	0.915949	0.0164824	3	-0.0126926	1.50971e-05
2	1	0	0	0	297.988	1.10235	1.10202	0.0244625	3	-0.0126174	2.69583e-05
2	0	0	0	0	301.654	1.11436	1.11409	0.0138369	3	-0.0125296	1.54155e-05
2	0	0	1	0	305.376	0.928279	0.927943	0.0051095	3	-0.0124982	4.74132e-06
2	0	0	1	0	309.129	0.740599	0.740268	0.00199142	3	-0.0124857	1.47418e-06
2	0	0	1	0	312.851	0.554521	0.554186	0.000134797	3	-0.012482	7.47024e-08
2	0	0	1	0	316.572	0.368443	0.368084	-0.00151289	3	-0.0124846	-5.56871e-07
2	0	0	1	0	320.294	0.182365	0.18198	-0.00313822	3	-0.0124934	-5.71092e-07
2	0	0	1	0	324.016	-0.00371319	-0.00413447	-0.00449738	3	-0.0125076	1.85943e-08
2	0	0	0	0	327.737	-0.189791	-0.190301	-0.00620089	3	-0.0125273	1.18003e-06
2	0	0	0	0	331.491	-0.37747	-0.377875	-0.0147467	3	-0.0125624	5.57243e-06
2	0	0	0	0	335.212	-0.563548	-0.564024	-0.0374845	3	-0.0126544	2.11422e-05
2	0	0	0	0	338.934	-0.749627	-0.75007	-0.0706688	3	-0.0128545	5.30065e-05
2	0	0	0	0	342.655	-0.935705	-0.936118	-0.0937963	3	-0.0131663	8.78045e-05
2	0	0	0	0	346.409	-1.12338	-1.12381	-0.105502	3	-0.0135425	0.000118564
2	0	0	1	0	350.13	-1.30946	-1.30986	-0.11259	3	-0.0139488	0.000147477
2	0	0	1	0	353.852	-1.49554	-1.49593	-0.122344	3	-0.0143842	0.000183018
2	0	0	1	0	357.574	-1.68162	-1.68202	-0.148764	3	-0.0148807	0.000250223
2	0	0	1	0	361.295	-1.8677	-1.86804	-0.211922	3	-0.0155417	0.000395879
2	1	0	0	1	364.993	-1.94743	-1.94781	-0.227547	3	-0.0164421	0.000443218
2	1	0	0	1	368.715	-1.76135	-1.76178	-0.157886	3	-0.017139	0.00027816
2	1	0	1	1	372.436	-1.57527	-1.57568	-0.12075	3	-0.0176533	0.000190264
2	1	0	1	1	376.158	-1.3892	-1.38959	-0.0971594	3	-0.0180539	0.000135012
2	1	0	1	1	379.88	-1.20312	-1.20355	-0.0836298	3	-0.0183893	0.000100653
2	1	0	1	1	383.601	-1.01704	-1.01745	-0.074376	3	-0.0186851	7.56742e-05
2	1	0	1	1	387.297	-0.832261	-0.832762	-0.0480316	4	-0.018918	3.99989e-05
2	1	0	0	1	391.05	-0.644582	-0.645045	-0.0141999	4	-0.0190292	9.15957e-06
2	1	0	0	1	394.804	-0.456904	-0.45732	-0.00287668	4	-0.0190544	1.31556e-06
2	1	0	0	1	398.525	-0.270825	-0.271237	0.00519748	4	-0.0190512	-1.40975e-06
2	1	0	0	1	402.247	-0.0847472	-0.0850958	0.00701004	4	-0.0190266	-5.96525e-07
2	1	0	0	1	405.969	0.101331	0.100988	0.00694783	4	-0.0190007	7.01644e-07
2	1	0	0	1	409.69	0.287409	0.287089	0.00754573	4	-0.0189738	2.1663e-06
2	1	0	1	1	413.412	0.473487	0.473149	0.00847738	4	-0.018944	4.01106e-06
2	1	0	1	1	417.133	0.659565	0.659263	0.0101344	4	-0.0189099	6.68126e-06
2	1	0	1	1	420.887	0.847244	0.846914	0.0142047	4	-0.0188648	1.20302e-05
2	1	0	1	1	424.608	1.03332	1.03301	0.0209139	4	-0.0188004	2.16043e-05
2	0	0	1	1	428.274	1.18338	1.18314	0.0244123	4	-0.0187071	2.88831e-05
2	0	0	1	1	431.996	0.997307	0.997046	0.00699226	4	-0.0186593	6.9716e-06
2	0	0	0	1	435.749	0.809626	0.809301	0.0028114	4	-0.0186422	2.27526e-06
2	0	0	0	1	439.471	0.62355	0.623196	0.000673566	4	-0.018636	4.19763e-07
2	0	0	0	1	443.193	0.437472	0.437091	-0.00096507	4	-0.0186367	-4.21824e-07
2	0	0	0	1	446.914	0.251394	0.251019	-0.00252564	4	-0.0186433	-6.33981e-07
2	0	0	0	1	450.636	0.0653158	0.0649066	-0.00398229	4	-0.0186555	-2.58477e-07
2	0	0	0	1	454.357	-0.120762	-0.121199	-0.00539296	4	-0.0186729	6.53621e-07
2	0	0	1	1	458.079	-0.306841	-0.307308	-0.00970153	4	-0.0186984	2.98136e-06
2	0	0	1	1	461.832	-0.494519	-0.494946	-0.02624	4	-0.0187619	1.29874e-05
2	0	0	1	1	465.554	-0.680598	-0.681045	-0.0574761	4	-0.0189151	3.91438e-05
2	0	0	1	1	469.276	-0.866676	-0.867117	-0.0872641	4	-0.0191897	7.56682e-05
2	0	0	1	1	472.997	-1.05275	-1.05314	-0.101687	4	-0.0195446	0.00010709
2	0	0	1	1	476.751	-1.24043	-1.2408	-0.110014	4	-0.019943	0.000136505
2	0	0	0	1	480.472	-1.42651	-1.42693	-0.117557	4	-0.0203658	0.000167745
2	0	0	0	1	484.194	-1.61259	-1.61298	-0.135786	4	-0.0208314	0.000219021
2	0	0	0	1	487.915	-1.79867	-1.79908	-0.184935	4	-0.0214148	0.000332713
2	0	0	0	1	491.637	-1.98475	-1.98511	-0.26505	4	-0.0222431	0.000526152
2	1	0	1	0	495.335	-1.83038	-1.83079	-0.175886	4	-0.0230466	0.00032201
2	1	0	0	0	499.057	-1.6443	-1.64475	-0.133319	4	-0.0236145	0.000219275
2	1	0	0	0	502.778	-1.45822	-1.45863	-0.104351	4	-0.0240518	0.00015221
2	1	0	0	0	506.5	-1.27215	-1.27258	-0.08832	4	-0.0244073	0.000112395
2	1	0	0	0	510.221	-1.08607	-1.08653	-0.0788742	4	-0.0247161	8.56995e-05
2	1	0	0	0	511.942	-0.999982	-1.00038	-0.0728173	4	-0.0248469	7.2845e-05