File: RDE_data/02262020_MnO2_RDE_50mVs_400rpm_ExtendedBounds_IncreasedFlow_C04.mpt
EC-Lab ASCII FILE
Nb header lines : 56

Cyclic Voltammetry

Run on channel : 4 (SN 35517)
User : CESL
CE vs. WE compliance from -10 V to 10 V
Electrode connection : standard
Ewe ctrl range : min = -2.50 V, max = 2.50 V
Safety Limits :
	Do not start on E overload
Acquisition started on : 02/26/2020 14:23:34
Technique started on : 02/26/2020 14:23:34
Saved on :
	File : 02262020_MnO2_RDE_50mVs_400rpm_ExtendedBounds_IncreasedFlow_C04.mpr
	Directory : C:\Users\CESL\Documents\EC-Lab\Data\Undergrad\Katelyn\EChem\
	Host : 169.254.217.189
Device : VSP (SN 1724172417241724)
Address : USB
EC-Lab for windows v11.16 (software)
Internet server v11.16 (firmware)
Command interpretor v11.16 (firmware)
Electrode material : Au/Pd
Initial state :
Electrolyte : NaCl (0.2M)
Comments : Fe(CN)63-/Fe(CN)64- 5.10-3 M
Reference electrode : SCE Saturated Calomel Electrode (0.241 V)
Electrode surface area : 0.001 cm²
Characteristic mass : 0.001 g
Equivalent Weight : 0.000 g/eq.
Density : 0.000 g/cm3
Cycle Definition : Charge/Discharge alternance
Ei (V)              -1.000
vs.                 Ref
dE/dt               50.000
dE/dt unit          mV/s
E1 (V)              1.200
vs.                 Ref
Step percent        50
N                   10
E range min (V)     -2.500
E range max (V)     2.500
I Range             Auto
I Range min         Unset
I Range max         Unset
I Range init        Unset
Bandwidth           5
E2 (V)              -2.000
vs.                 Ref
nc cycles           3
Reverse Scan        1
Ef (V)              -1.000
vs.                 Ref

mode	ox/red	error	control changes	counter inc.	time/s	control/V	Ewe/V	<I>/mA	cycle number	(Q-Qo)/C	P/W
2	1	0	0	0	0.000000000000000E+000	-0.99698	-0.99744	-0.264734	1	0.0000000E+000	0.000264056
2	1	0	0	0	3.7626	-0.808852	-0.809291	-0.0421922	1	-0.000252866	3.41458e-05
2	1	0	1	0	7.504	-0.621773	-0.622235	-0.0159873	1	-0.000358993	9.94789e-06
2	1	0	1	0	11.2456	-0.434694	-0.435143	-0.00579775	1	-0.0003942	2.52285e-06
2	1	0	1	0	15.0192	-0.246015	-0.246415	0.00306348	1	-0.000399165	-7.54886e-07
2	1	0	1	0	18.7608	-0.0589364	-0.0593671	0.00505825	1	-0.000382852	-3.00293e-07
2	1	0	1	0	22.5024	0.128142	0.127775	0.00571026	1	-0.000362453	7.29628e-07
2	1	0	1	0	26.244	0.315221	0.314892	0.00643711	1	-0.000339579	2.027e-06
2	1	0	1	0	29.9856	0.502299	0.502026	0.00739756	1	-0.000313588	3.71377e-06
2	1	0	0	0	33.727	0.689378	0.689075	0.00950922	1	-0.000282582	6.55256e-06
2	1	0	0	0	37.5006	0.878057	0.877746	0.0139736	1	-0.000238861	1.22652e-05
2	1	0	0	0	41.2422	1.06514	1.06489	0.0213462	1	-0.000173568	2.27314e-05
2	0	0	0	0	44.9322	1.15037	1.15015	0.0169016	1	-8.39063e-05	1.94393e-05
2	0	0	0	0	48.6738	0.963293	0.963035	0.00518189	1	-4.87853e-05	4.99034e-06
2	0	0	0	0	52.4474	0.774613	0.774278	0.00172804	1	-3.67633e-05	1.33798e-06
2	0	0	0	0	56.189	0.587535	0.587122	-0.000100887	1	-3.39941e-05	-5.92328e-08
2	0	0	0	0	59.9306	0.400456	0.400097	-0.00161913	1	-3.73112e-05	-6.47808e-07
2	0	0	0	0	63.6722	0.213378	0.21296	-0.00310712	1	-4.62459e-05	-6.61694e-07
2	0	0	1	0	67.4136	0.0262994	0.0259318	-0.00449073	1	-6.05976e-05	-1.16453e-07
2	0	0	1	0	71.1552	-0.160779	-0.161256	-0.00606717	1	-8.02646e-05	9.78367e-07
2	0	0	1	0	74.9288	-0.349458	-0.349921	-0.0121772	1	-0.000111165	4.26106e-06
2	0	0	1	0	78.6704	-0.536537	-0.536936	-0.0297453	1	-0.000185574	1.59713e-05
2	0	0	1	0	82.412	-0.723616	-0.724075	-0.054568	1	-0.000344157	3.95113e-05
2	0	0	1	0	86.1536	-0.910694	-0.911095	-0.0698836	1	-0.000581235	6.36706e-05
2	0	0	1	0	89.8952	-1.09777	-1.09815	-0.07757	1	-0.000858124	8.51837e-05
2	0	0	0	0	93.6366	-1.28485	-1.28524	-0.0831137	1	-0.0011588	0.000106821
2	0	0	0	0	97.3782	-1.47193	-1.47229	-0.0915539	1	-0.00148351	0.000134794
2	0	0	0	0	101.152	-1.66061	-1.66099	-0.117302	1	-0.0018681	0.000194838
2	0	0	0	0	104.893	-1.84769	-1.84808	-0.175268	1	-0.00240547	0.000323909
2	1	0	1	1	108.612	-1.96644	-1.96681	-0.20889	1	-0.00318711	0.000410848
2	1	0	1	1	112.353	-1.77936	-1.77974	-0.129246	1	-0.00379287	0.000230023
2	1	0	1	1	116.095	-1.59228	-1.59263	-0.0940192	1	-0.00420503	0.000149738
2	1	0	0	1	119.836	-1.4052	-1.40558	-0.0714212	1	-0.00451102	0.000100388
2	1	0	0	1	123.578	-1.21812	-1.21855	-0.057722	1	-0.00475211	7.03372e-05
2	1	0	0	1	127.319	-1.03104	-1.03149	-0.0509855	1	-0.00495307	5.25908e-05
2	1	0	0	1	131.067	-0.843666	-0.844107	-0.0372714	2	-0.00512315	3.1461e-05
2	1	0	0	1	134.809	-0.656588	-0.657044	-0.0124459	2	-0.0052152	8.17754e-06
2	1	0	0	1	138.582	-0.467908	-0.468302	-0.00174578	2	-0.00523616	8.17554e-07
2	1	0	0	1	142.324	-0.28083	-0.281218	0.00512251	2	-0.00523147	-1.44054e-06
2	1	0	0	1	146.065	-0.093751	-0.094138	0.00695152	2	-0.00520698	-6.54402e-07
2	1	0	1	1	149.807	0.0933275	0.0930072	0.00691572	2	-0.00518099	6.43211e-07
2	1	0	1	1	153.548	0.280406	0.280044	0.00754737	2	-0.00515411	2.1136e-06
2	1	0	1	1	157.29	0.467485	0.467156	0.00841508	2	-0.00512411	3.93116e-06
2	1	0	1	1	161.032	0.654563	0.65426	0.0100911	2	-0.00509007	6.60224e-06
2	1	0	1	1	164.805	0.843242	0.842922	0.0140807	2	-0.0050452	1.18689e-05
2	1	0	1	1	168.547	1.03032	1.03006	0.0208039	2	-0.004981	2.14292e-05
2	0	0	1	1	172.233	1.18539	1.18509	0.024918	2	-0.00488747	2.953e-05
2	0	0	1	1	175.974	0.998307	0.997992	0.00695155	2	-0.00483929	6.93759e-06
2	0	0	0	1	179.748	0.809626	0.809316	0.00274947	2	-0.00482226	2.22519e-06
2	0	0	0	1	183.489	0.62255	0.622216	0.000601418	2	-0.00481634	3.74212e-07
2	0	0	0	1	187.231	0.435471	0.435152	-0.00103408	2	-0.00481726	-4.4998e-07
2	0	0	0	1	190.973	0.248393	0.247984	-0.00259468	2	-0.00482412	-6.43437e-07
2	0	0	0	1	194.714	0.0613141	0.0608894	-0.0039835	2	-0.00483658	-2.42553e-07
2	0	0	0	1	198.456	-0.125764	-0.126191	-0.0053641	2	-0.00485394	6.76903e-07
2	0	0	0	1	202.197	-0.312843	-0.313312	-0.00957043	2	-0.00487922	2.99853e-06
2	0	0	0	1	205.971	-0.501522	-0.501963	-0.0247472	2	-0.00494037	1.24222e-05
2	0	0	1	1	209.712	-0.688601	-0.68902	-0.0498474	2	-0.00507964	3.43458e-05
2	0	0	1	1	213.454	-0.875679	-0.876097	-0.0678236	2	-0.00530467	5.942e-05
2	0	0	1	1	217.196	-1.06276	-1.06316	-0.0763839	2	-0.0055759	8.12086e-05
2	0	0	1	1	220.937	-1.24984	-1.25022	-0.0819357	2	-0.0058727	0.000102438
2	0	0	1	1	224.679	-1.43692	-1.43726	-0.0892805	2	-0.0061915	0.000128319
2	0	0	1	1	228.45	-1.62549	-1.62585	-0.109197	2	-0.006559	0.000177537
2	0	0	1	1	232.192	-1.81257	-1.81295	-0.161123	2	-0.00705442	0.000292109
2	0	0	0	1	235.931	-1.99955	-1.99991	-0.242338	2	-0.00779692	0.000484654
2	1	0	1	0	239.654	-1.81437	-1.81471	-0.137731	2	-0.00845399	0.000249942
2	1	0	1	0	243.395	-1.6273	-1.62767	-0.0980774	2	-0.00888605	0.000159638
2	1	0	1	0	247.137	-1.44022	-1.44063	-0.0739119	2	-0.00920417	0.00010648
2	1	0	1	0	250.878	-1.25314	-1.25354	-0.0599459	2	-0.00945262	7.51448e-05
2	1	0	1	0	254.62	-1.06606	-1.06651	-0.0519461	2	-0.00965803	5.54013e-05
2	1	0	1	0	258.368	-0.878681	-0.879065	-0.0410737	3	-0.00983655	3.61064e-05
2	1	0	0	0	262.109	-0.691602	-0.692036	-0.0165671	3	-0.00994632	1.1465e-05
2	1	0	0	0	265.883	-0.502923	-0.503318	-0.00231441	3	-0.00997611	1.16489e-06
2	1	0	0	0	269.624	-0.315844	-0.316232	0.00384321	3	-0.00997578	-1.21535e-06
2	1	0	0	0	273.366	-0.128766	-0.129174	0.0069184	3	-0.009953	-8.93678e-07
2	1	0	0	0	277.107	0.0583128	0.057952	0.00689021	3	-0.00992702	3.99302e-07
2	1	0	0	0	280.849	0.245391	0.245085	0.00733773	3	-0.00990055	1.79837e-06
2	1	0	0	0	284.591	0.43247	0.432129	0.00827765	3	-0.00987127	3.57701e-06
2	1	0	0	0	288.332	0.619548	0.619232	0.00955837	3	-0.00983833	5.91884e-06
2	1	0	1	0	292.106	0.808228	0.807923	0.0130969	3	-0.00979622	1.05813e-05
2	1	0	1	0	295.847	0.995306	0.995003	0.0192342	3	-0.00973647	1.91381e-05
2	1	0	1	0	299.589	1.18238	1.18212	0.0292876	3	-0.00964713	3.46215e-05
2	0	0	1	0	303.275	1.03332	1.03302	0.00840117	3	-0.00958548	8.67854e-06
2	0	0	1	0	307.048	0.844643	0.844319	0.00330377	3	-0.00956511	2.78944e-06
2	0	0	1	0	310.79	0.657564	0.657263	0.000963637	3	-0.00955753	6.33363e-07
2	0	0	1	0	314.532	0.470486	0.470104	-0.00070426	3	-0.00955724	-3.31076e-07
2	0	0	1	0	318.273	0.283407	0.283047	-0.00226534	3	-0.00956287	-6.41199e-07
2	0	0	0	0	322.015	0.0963288	0.0959742	-0.00370219	3	-0.00957419	-3.55315e-07
2	0	0	0	0	325.756	-0.0907498	-0.091223	-0.00500357	3	-0.00959039	4.5644e-07
2	0	0	0	0	329.498	-0.277828	-0.278309	-0.00776316	3	-0.00961271	2.16056e-06
2	0	0	0	0	333.271	-0.466508	-0.466959	-0.020534	3	-0.00966307	9.58856e-06
2	0	0	0	0	337.013	-0.653586	-0.654053	-0.0448985	3	-0.00978368	2.9366e-05
2	0	0	0	0	340.755	-0.840665	-0.841033	-0.0654272	3	-0.00999449	5.50265e-05
2	0	0	0	0	344.496	-1.02774	-1.0281	-0.074624	3	-0.0102588	7.67207e-05
2	0	0	0	0	348.238	-1.21482	-1.2152	-0.0804096	3	-0.0105497	9.77134e-05
2	0	0	1	0	351.979	-1.4019	-1.40229	-0.0868149	3	-0.0108616	0.00012174
2	0	0	1	0	355.721	-1.58898	-1.58928	-0.102764	3	-0.0112108	0.000163321
2	0	0	1	0	359.494	-1.77766	-1.77804	-0.147789	3	-0.0116729	0.000262775
2	0	0	1	0	363.236	-1.96474	-1.96511	-0.221756	3	-0.012356	0.000435775
2	1	0	0	1	366.954	-1.84939	-1.84979	-0.14661	3	-0.0130682	0.000271197
2	1	0	0	1	370.696	-1.66231	-1.66279	-0.103694	3	-0.0135278	0.000172421
2	1	0	0	1	374.437	-1.47523	-1.47563	-0.0780321	3	-0.0138645	0.000115147
2	1	0	1	1	378.179	-1.28815	-1.28858	-0.0631742	3	-0.014125	8.1405e-05
2	1	0	1	1	381.92	-1.10107	-1.10147	-0.0531267	3	-0.0143379	5.85177e-05
2	1	0	1	1	385.668	-0.913696	-0.914109	-0.04446	4	-0.0145238	4.06413e-05
2	1	0	1	1	389.41	-0.726617	-0.727012	-0.0213992	4	-0.0146507	1.55575e-05
2	1	0	1	1	393.183	-0.537938	-0.538355	-0.00354115	4	-0.0146917	1.9064e-06
2	1	0	1	1	396.925	-0.350859	-0.351272	0.00214112	4	-0.0146954	-7.52115e-07
2	1	0	1	1	400.666	-0.16378	-0.164173	0.00680209	4	-0.0146756	-1.11672e-06
2	1	0	0	1	404.408	0.0232981	0.0229541	0.00688886	4	-0.0146498	1.58128e-07
2	1	0	0	1	408.149	0.210377	0.210026	0.00722984	4	-0.0146236	1.51846e-06
2	1	0	0	1	411.891	0.397455	0.397163	0.00810508	4	-0.0145949	3.21904e-06
2	1	0	0	1	415.633	0.584534	0.584185	0.00919096	4	-0.0145628	5.36922e-06
2	1	0	0	1	419.406	0.773213	0.772895	0.0122136	4	-0.0145232	9.43982e-06
2	1	0	0	1	423.148	0.960291	0.959997	0.0178575	4	-0.0144677	1.71432e-05
2	1	0	0	1	426.889	1.14737	1.14711	0.0270125	4	-0.0143851	3.09861e-05
2	0	0	0	1	430.575	1.06834	1.06805	0.0101214	4	-0.0143101	1.08102e-05
2	0	0	0	1	434.349	0.879658	0.879376	0.00388984	4	-0.014286	3.42063e-06
2	0	0	1	1	438.09	0.692579	0.692258	0.00131191	4	-0.0142767	9.08179e-07
2	0	0	1	1	441.832	0.505501	0.505147	-0.000417286	4	-0.0142751	-2.10791e-07
2	0	0	1	1	445.574	0.318422	0.31803	-0.00199313	4	-0.0142797	-6.33875e-07
2	0	0	1	1	449.315	0.131343	0.130958	-0.00346628	4	-0.01429	-4.53938e-07
2	0	0	1	1	453.057	-0.0557351	-0.0562049	-0.00468737	4	-0.0143052	2.63453e-07
2	0	0	1	1	456.798	-0.242814	-0.243296	-0.00661442	4	-0.0143257	1.60926e-06
2	0	0	1	1	460.572	-0.431493	-0.43195	-0.0170733	4	-0.0143672	7.37481e-06
2	0	0	0	1	464.313	-0.618575	-0.619024	-0.0400379	4	-0.0144702	2.47844e-05
2	0	0	0	1	468.055	-0.80565	-0.806116	-0.0628362	4	-0.0146657	5.06532e-05
2	0	0	0	1	471.797	-0.992729	-0.993132	-0.0737345	4	-0.0149238	7.32281e-05
2	0	0	0	1	475.538	-1.17981	-1.18016	-0.0798739	4	-0.0152117	9.42639e-05
2	0	0	0	1	479.28	-1.36689	-1.3673	-0.0856704	4	-0.015521	0.000117137
2	0	0	0	1	483.021	-1.55396	-1.55433	-0.0986141	4	-0.0158616	0.000153279
2	0	0	0	1	486.795	-1.74264	-1.743	-0.137339	4	-0.0162952	0.000239381
2	0	0	0	1	490.537	-1.92972	-1.93011	-0.204707	4	-0.0169274	0.000395105
2	1	0	0	0	494.255	-1.8844	-1.88478	-0.158574	4	-0.0176751	0.000298877
2	1	0	0	0	497.996	-1.69732	-1.69776	-0.108582	4	-0.0181616	0.000184346
2	1	0	0	0	501.738	-1.51025	-1.51065	-0.0815687	4	-0.0185134	0.000123222
2	1	0	0	0	505.479	-1.32317	-1.32354	-0.0649338	4	-0.0187841	8.59428e-05
2	1	0	0	0	509.221	-1.13609	-1.13651	-0.0538435	4	-0.0190038	6.11935e-05
2	1	0	0	0	511.942	-0.999982	-1.00036	-0.0496189	4	-0.019145	4.96368e-05